# AFGL atmospheric constituent profile. U.S. standard atmosphere 1976. ( AFGL-TR-86-0110)       
# molecules:    H2O
# z(km)   p(mb)        T(K)	MU	h2o(cm-3)
120.0	  0.00003     360.000	28.8	1.022800E+05
115.0	  0.00004     300.000	28.8	2.325120E+05
110.0	  0.00007     240.000	28.8	6.003200E+06
105.0	  0.00014     210.800	28.8	1.711220E+06
100.0	  0.00032     210.100	28.8	4.756001E+06
 95.0	  0.00076     210.400	28.8	1.578960E+07
 90.0	  0.00184     210.900	28.8	6.065600E+07
 85.0	  0.00446     210.900	28.8	2.275630E+08
 80.0	  0.01050     210.600	28.8	7.855600E+08
 75.0	  0.02400     210.400	28.8	2.358028E+09
 70.0	  0.05220     219.600	28.8	6.030500E+09
 65.0	  0.10900     233.300	28.8	1.422120E+10
 60.0	  0.21900     247.000	28.8	3.052350E+10
 55.0	  0.42500     260.800	28.8	6.023100E+10
 50.0	  0.79780     270.700	28.8	1.116060E+11
 47.5	  1.09000     270.600	28.8	1.533000E+11
 45.0	  1.49100     264.200	28.8	2.137025E+11
 42.5	  2.06000     257.300	28.8	2.988545E+11
 40.0	  2.87100     250.400	28.8	4.175775E+11
 37.5	  4.04116     243.435	28.8	6.128100E+11
 35.0	  5.74600     236.500	28.8	8.628900E+11
 32.5	  8.25725     229.588	28.8	1.217830E+12
 30.0	 11.97000     226.500	28.8	1.809675E+12
 27.5	 17.43000     224.000	28.8	2.580300E+12
 25.0	 25.49000     221.600	28.8	3.689123E+12
 24.0	 29.72000     220.600	28.8	4.198950E+12
 23.0	 34.67000     219.600	28.8	4.804800E+12
 22.0	 40.47000     218.600	28.8	5.455230E+12
 21.0	 47.29000     217.600	28.8	6.260625E+12
 20.0	 55.29000     216.700	28.8	7.211100E+12
 19.0	 64.67000     216.700	28.8	8.327550E+12
 18.0	 75.65000     216.700	28.8	9.677249E+12
 17.0	 88.50000     216.700	28.8	1.139600E+13
 16.0	103.50000     216.700	28.8	1.367490E+13
 15.0	121.10000     216.700	28.8	2.025000E+13
 14.0	141.70000     216.700	28.8	2.808805E+13
 13.0	165.80000     216.700	28.8	6.017410E+13
 12.0	194.00000     216.700	28.8	1.236803E+14
 11.0	227.00000     216.800	28.8	2.741906E+14
 10.0	265.00000     223.300	28.8	6.017959E+14
  9.0	308.00000     229.700	28.8	1.538518E+15
  8.0	356.50000     236.200	28.8	4.011698E+15
  7.0	411.10001     242.700	28.8	7.024160E+15
  6.0	472.20001     249.200	28.8	1.270574E+16
  5.0	540.50000     255.700	28.8	2.140204E+16
  4.0	616.59998     262.200	28.8	3.677232E+16
  3.0	701.20001     268.700	28.8	6.017162E+16
  2.0	795.00000     275.200	28.8	9.697315E+16
  1.0	898.79999     281.700	28.8	1.404222E+17
  0.0	1013.00000    288.200	28.8	1.973426E+17